é¸îgêî [Hz],RÇ…Ç©Ç©ÇÈìdà≥ [V],CÇ…Ç©Ç©ÇÈìdà≥ [V],LÇ…Ç©Ç©ÇÈìdà≥ [V]
0.5,0.1561,0.98,0.0177
0.6,0.1852,0.955,0.0237
0.8,0.2524,0.998,0.0404
1,0.3244,0.995,0.0651
2,0.635,0.975,0.2474
3,0.863,0.896,0.496
3.5,0.922,0.828,0.612
4,0.946,0.716,0.746
4.5,0.941,0.663,0.796
5,0.897,0.552,0.87
6,0.825,0.4315, 0.943 
8,0.648,0.253,0.994
10,0.521,0.162,1.007
20,0.2631,0.0417,1.016
30,0.1722,0.0181,1.004
40,0.1284,0.0095,1.005
50,0.1025,0.0045,1.004
60,0.0844,0.0018,1.007
80,0.061,0,1.011
100,0.0464,0,1.004
